# sky background 0.3-1.0um
# DARKEST optical sky - 20%ile conditions (day 3)
#AM=1.0
#
#derived from sky spectrum with constant slope to match assumed photometric background
#increasingly poor model at very bright sky (day14);  patched to near-IR background at 920nm
#
#1 March 2001 : Phil Puxley

#nm         phot/s/nm/arcsec^2/m^2
200.00                    0.0000
300.00                    0.0000
349.99                    0.0000
350.17                    0.3103
350.43                    0.3101
350.70                    0.3099
350.96                    0.3097
351.23                    0.3095
351.49                    0.3093
351.76                    0.3091
352.02                    0.3088
352.29                    0.3086
352.55                    0.3084
352.82                    0.3082
353.08                    0.3080
353.35                    0.3078
353.62                    0.3076
353.88                    0.3074
354.15                    0.3071
354.41                    0.3069
354.68                    0.3067
354.94                    0.3065
355.21                    0.3063
355.47                    0.3061
355.74                    0.3059
356.00                    0.3056
356.27                    0.3054
356.53                    0.3052
356.80                    0.3050
357.07                    0.3048
357.33                    0.3046
357.60                    0.3044
357.86                    0.3042
358.13                    0.3039
358.39                    0.3037
358.66                    0.3035
358.92                    0.3033
359.19                    0.3031
359.45                    0.3029
359.72                    0.3027
359.98                    0.3024
360.25                    0.3022
360.51                    0.3020
360.78                    0.3018
361.05                    0.3016
361.31                    0.3014
361.58                    0.3012
361.84                    0.3010
362.11                    0.3007
362.37                    0.3005
362.64                    0.3003
362.90                    0.3001
363.17                    0.2999
363.43                    0.2997
363.70                    0.2995
363.96                    0.2993
364.23                    0.2990
364.49                    0.2988
364.76                    0.2986
365.03                    0.2984
365.29                    0.2982
365.56                    0.2980
365.82                    0.2978
366.09                    0.2975
366.35                    0.2973
366.62                    0.2971
366.88                    0.2969
367.15                    0.2967
367.41                    0.2965
367.68                    0.2963
367.94                    0.2961
368.21                    0.2958
368.47                    0.2956
368.74                    0.2954
369.01                    0.2952
369.27                    0.2950
369.54                    0.2948
369.80                    0.2946
370.07                    0.2943
370.33                    0.2941
370.60                    0.2939
370.86                    0.2937
371.13                    0.2935
371.39                    0.2933
371.66                    0.2931
371.92                    0.2929
372.19                    0.2926
372.45                    0.2924
372.72                    0.2922
372.99                    0.2920
373.25                    0.2918
373.52                    0.2916
373.78                    0.2914
374.05                    0.2912
374.31                    0.2909
374.58                    0.2907
374.84                    0.2905
375.11                    0.2903
375.37                    0.2901
375.64                    0.2899
375.90                    0.2897
376.17                    0.2894
376.43                    0.2892
376.70                    0.2890
376.97                    0.2888
377.23                    0.2886
377.50                    0.2884
377.76                    0.2882
378.03                    0.2880
378.29                    0.2877
378.56                    0.2875
378.82                    0.2873
379.09                    0.2871
379.35                    0.2869
379.62                    0.2867
379.88                    0.2865
380.15                    0.2862
380.41                    0.2860
380.68                    0.2858
380.95                    0.2856
381.21                    0.2854
381.48                    0.2852
381.74                    0.2850
382.01                    0.2848
382.27                    0.2845
382.54                    0.2843
382.80                    0.2841
383.07                    0.2839
383.33                    0.2837
383.60                    0.2835
383.86                    0.2833
384.13                    0.2831
384.40                    0.2828
384.66                    0.2826
384.93                    0.2824
385.19                    0.2822
385.46                    0.2820
385.72                    0.2818
385.99                    0.2816
386.25                    0.2814
386.52                    0.2812
386.78                    0.2810
387.05                    0.2808
387.31                    0.2806
387.58                    0.2804
387.84                    0.2802
388.11                    0.2800
388.38                    0.2798
388.64                    0.2796
388.91                    0.2794
389.17                    0.2792
389.44                    0.2790
389.70                    0.2788
389.97                    0.2786
390.23                    0.2785
390.50                    0.2783
390.76                    0.2781
391.03                    0.2780
391.29                    0.2778
391.56                    0.2776
391.82                    0.2775
392.09                    0.2773
392.36                    0.2771
392.62                    0.2770
392.89                    0.2768
393.15                    0.2766
393.42                    0.2764
393.68                    0.2763
393.95                    0.2761
394.21                    0.2759
394.48                    0.2758
394.74                    0.2756
395.01                    0.2754
395.27                    0.2753
395.54                    0.2751
395.80                    0.2749
396.07                    0.2747
396.34                    0.2746
396.60                    0.2744
396.87                    0.2742
397.13                    0.2740
397.40                    0.2739
397.66                    0.2737
397.93                    0.2735
398.19                    0.2733
398.46                    0.2732
398.72                    0.2730
398.99                    0.2728
399.25                    0.2726
399.52                    0.2725
399.78                    0.2723
400.05                    0.2720
400.32                    0.2719
400.58                    0.2717
400.85                    0.2716
401.11                    0.2714
401.38                    0.2712
401.64                    0.2710
401.91                    0.2708
402.17                    0.2706
402.44                    0.2705
402.70                    0.2703
402.97                    0.2701
403.23                    0.2699
403.50                    0.2697
403.76                    0.2696
404.03                    0.2694
404.30                    0.2692
404.56                    0.2690
404.83                    0.2688
405.09                    0.2687
405.36                    0.2685
405.62                    0.2683
405.89                    0.2682
406.15                    0.2680
406.42                    0.2678
406.68                    0.2676
406.95                    0.2675
407.21                    0.2673
407.48                    0.2671
407.74                    0.2670
408.01                    0.2668
408.28                    0.2666
408.54                    0.2665
408.81                    0.2663
409.07                    0.2662
409.34                    0.2660
409.60                    0.2659
409.87                    0.2657
410.13                    0.2656
410.40                    0.2654
410.66                    0.2653
410.93                    0.2652
411.19                    0.2650
411.46                    0.2649
411.73                    0.2648
411.99                    0.2646
412.26                    0.2645
412.52                    0.2644
412.79                    0.2642
413.05                    0.2641
413.32                    0.2640
413.58                    0.2638
413.85                    0.2637
414.11                    0.2635
414.38                    0.2634
414.64                    0.2633
414.91                    0.2631
415.17                    0.2630
415.44                    0.2628
415.71                    0.2627
415.97                    0.2626
416.24                    0.2624
416.50                    0.2623
416.77                    0.2621
417.03                    0.2620
417.30                    0.2618
417.56                    0.2617
417.83                    0.2615
418.09                    0.2614
418.36                    0.2612
418.62                    0.2611
418.89                    0.2609
419.15                    0.2608
419.42                    0.2606
419.69                    0.2604
419.95                    0.2603
420.22                    0.2601
420.48                    0.2599
420.75                    0.2597
421.01                    0.2596
421.28                    0.2594
421.54                    0.2592
421.81                    0.2590
422.07                    0.2588
422.34                    0.2587
422.60                    0.2585
422.87                    0.2583
423.13                    0.2581
423.40                    0.2579
423.67                    0.2578
423.93                    0.2576
424.20                    0.2574
424.46                    0.2572
424.73                    0.2570
424.99                    0.2569
425.26                    0.2567
425.52                    0.2565
425.79                    0.2563
426.05                    0.2562
426.32                    0.2560
426.58                    0.2558
426.85                    0.2556
427.11                    0.2555
427.38                    0.2553
427.65                    0.2551
427.91                    0.2549
428.18                    0.2548
428.44                    0.2546
428.71                    0.2544
428.97                    0.2543
429.24                    0.2541
429.50                    0.2539
429.77                    0.2538
430.03                    0.2536
430.30                    0.2534
430.56                    0.2533
430.83                    0.2531
431.09                    0.2530
431.36                    0.2528
431.63                    0.2527
431.89                    0.2525
432.16                    0.2524
432.42                    0.2522
432.69                    0.2520
432.95                    0.2519
433.22                    0.2517
433.48                    0.2516
433.75                    0.2514
434.01                    0.2513
434.28                    0.2511
434.54                    0.2510
434.81                    0.2508
435.07                    0.2507
435.34                    0.2505
435.61                    0.2504
435.87                    0.2502
436.14                    0.2501
436.40                    0.2499
436.67                    0.2498
436.93                    0.2497
437.20                    0.2495
437.46                    0.2494
437.73                    0.2492
437.99                    0.2491
438.26                    0.2490
438.52                    0.2488
438.79                    0.2487
439.05                    0.2486
439.32                    0.2484
439.59                    0.2483
439.85                    0.2482
440.12                    0.2481
440.38                    0.2480
440.65                    0.2479
440.91                    0.2478
441.18                    0.2477
441.44                    0.2476
441.71                    0.2475
441.97                    0.2474
442.24                    0.2473
442.50                    0.2471
442.77                    0.2470
443.04                    0.2469
443.30                    0.2468
443.57                    0.2467
443.83                    0.2466
444.10                    0.2465
444.36                    0.2464
444.63                    0.2463
444.89                    0.2462
445.16                    0.2461
445.42                    0.2460
445.69                    0.2458
445.95                    0.2457
446.22                    0.2456
446.48                    0.2455
446.75                    0.2454
447.02                    0.2453
447.28                    0.2451
447.55                    0.2450
447.81                    0.2449
448.08                    0.2448
448.34                    0.2447
448.61                    0.2445
448.87                    0.2444
449.14                    0.2443
449.40                    0.2441
449.67                    0.2440
449.93                    0.2439
450.20                    0.2437
450.46                    0.2436
450.73                    0.2434
451.00                    0.2433
451.26                    0.2431
451.53                    0.2430
451.79                    0.2428
452.06                    0.2427
452.32                    0.2425
452.59                    0.2424
452.85                    0.2422
453.12                    0.2421
453.38                    0.2419
453.65                    0.2418
453.91                    0.2416
454.18                    0.2415
454.44                    0.2413
454.71                    0.2412
454.98                    0.2411
455.24                    0.2409
455.51                    0.2408
455.77                    0.2406
456.04                    0.2405
456.30                    0.2403
456.57                    0.2402
456.83                    0.2400
457.10                    0.2399
457.36                    0.2397
457.63                    0.2396
457.89                    0.2395
458.16                    0.2393
458.42                    0.2392
458.69                    0.2390
458.96                    0.2389
459.22                    0.2388
459.49                    0.2386
459.75                    0.2385
460.02                    0.2383
460.28                    0.2382
460.55                    0.2381
460.81                    0.2380
461.08                    0.2378
461.34                    0.2377
461.61                    0.2376
461.87                    0.2374
462.14                    0.2373
462.40                    0.2372
462.67                    0.2371
462.94                    0.2369
463.20                    0.2368
463.47                    0.2367
463.73                    0.2366
464.00                    0.2365
464.26                    0.2363
464.53                    0.2362
464.79                    0.2361
465.06                    0.2360
465.32                    0.2358
465.59                    0.2357
465.85                    0.2356
466.12                    0.2355
466.38                    0.2354
466.65                    0.2353
466.92                    0.2351
467.18                    0.2350
467.45                    0.2349
467.71                    0.2348
467.98                    0.2347
468.24                    0.2346
468.51                    0.2345
468.77                    0.2344
469.04                    0.2343
469.30                    0.2342
469.57                    0.2341
469.83                    0.2340
470.10                    0.2340
470.37                    0.2339
470.63                    0.2338
470.90                    0.2338
471.16                    0.2337
471.43                    0.2336
471.69                    0.2336
471.96                    0.2335
472.22                    0.2334
472.49                    0.2334
472.75                    0.2333
473.02                    0.2332
473.28                    0.2331
473.55                    0.2331
473.81                    0.2330
474.08                    0.2329
474.35                    0.2329
474.61                    0.2328
474.88                    0.2327
475.14                    0.2326
475.41                    0.2325
475.67                    0.2325
475.94                    0.2324
476.20                    0.2323
476.47                    0.2322
476.73                    0.2321
477.00                    0.2320
477.26                    0.2319
477.53                    0.2318
477.79                    0.2317
478.06                    0.2316
478.33                    0.2315
478.59                    0.2314
478.86                    0.2313
479.12                    0.2312
479.39                    0.2311
479.65                    0.2309
479.92                    0.2308
480.18                    0.2307
480.45                    0.2305
480.71                    0.2304
480.98                    0.2302
481.24                    0.2301
481.51                    0.2299
481.77                    0.2297
482.04                    0.2296
482.31                    0.2294
482.57                    0.2293
482.84                    0.2291
483.10                    0.2290
483.37                    0.2288
483.63                    0.2287
483.90                    0.2285
484.16                    0.2284
484.43                    0.2282
484.69                    0.2280
484.96                    0.2279
485.22                    0.2277
485.49                    0.2276
485.75                    0.2274
486.02                    0.2273
486.29                    0.2271
486.55                    0.2270
486.82                    0.2268
487.08                    0.2267
487.35                    0.2266
487.61                    0.2264
487.88                    0.2263
488.14                    0.2261
488.41                    0.2260
488.67                    0.2258
488.94                    0.2257
489.20                    0.2256
489.47                    0.2254
489.73                    0.2253
490.00                    0.2251
490.27                    0.2250
490.53                    0.2249
490.80                    0.2248
491.06                    0.2247
491.33                    0.2245
491.59                    0.2244
491.86                    0.2243
492.12                    0.2242
492.39                    0.2241
492.65                    0.2239
492.92                    0.2238
493.18                    0.2237
493.45                    0.2236
493.71                    0.2235
493.98                    0.2233
494.25                    0.2232
494.51                    0.2231
494.78                    0.2230
495.04                    0.2229
495.31                    0.2227
495.57                    0.2226
495.84                    0.2225
496.10                    0.2224
496.37                    0.2223
496.63                    0.2221
496.90                    0.2220
497.16                    0.2219
497.43                    0.2218
497.70                    0.2217
497.96                    0.2216
498.23                    0.2214
498.49                    0.2213
498.76                    0.2212
499.02                    0.2211
499.29                    0.2210
499.55                    0.2209
499.82                    0.2208
500.08                    0.2207
500.35                    0.2205
500.61                    0.2204
500.88                    0.2203
501.14                    0.2202
501.41                    0.2201
501.68                    0.2200
501.94                    0.2199
502.21                    0.2198
502.47                    0.2197
502.74                    0.2196
503.00                    0.2195
503.27                    0.2194
503.53                    0.2193
503.80                    0.2192
504.06                    0.2191
504.33                    0.2190
504.59                    0.2189
504.86                    0.2188
505.12                    0.2187
505.39                    0.2186
505.66                    0.2185
505.92                    0.2184
506.19                    0.2183
506.45                    0.2182
506.72                    0.2181
506.98                    0.2180
